File: Courses/Advance project (MSE)/Mo2Ti2C3/XRD/data/Mo2Ti2C3_Si.dat
3.0000 7283.33
3.2600 6427.48
3.5200 6235.45
3.7800 5583.18
4.0400 5413.57
4.3000 4950.79
4.5600 4855.91
4.8200 4900.5
5.0800 4706.02
5.3400 4580.33
5.6000 4258.7
5.8600 4157.11
6.1200 4059.74
6.3800 3983.28
6.6400 3878.04
6.9000 4158
7.1600 4144.98
7.4200 4161.29
7.6800 4227.12
7.9400 4446.45
8.2000 4189.72
8.4600 4459.87
8.7200 4341.67
8.9800 4360.31
9.2400 4658.5
9.5000 4755.94
9.7600 4583
10.0200 4578.4
10.2800 4704.92
10.5400 4714.52
10.8000 4690.2
11.0600 4735.02
11.3200 4692.51
11.5800 4850.73
11.8400 5052.54
12.1000 4969.12
12.3600 4905.2
12.6200 5074.51
12.8800 5158.1
13.1400 5083.37
13.4000 5184.3
13.6600 5163.69
13.9200 4939.67
14.1800 5081.76
14.4400 5165.6
14.7000 5101.28
14.9600 5377.82
15.2200 5260.55
15.4800 5097.23
15.7400 5530.98
16.0000 5332.05
16.2600 5259.22
16.5200 5049.03
16.7800 5133.33
17.0400 5240.52
17.3000 4841.87
17.5600 5337.45
17.8200 4833.33
18.0800 5089.24
18.3400 5117.67
18.6000 4727.78
18.8600 4850.2
19.1200 5236.01
19.3800 5121.73
19.6400 4810.09
19.9000 4864.67
20.1600 4813.23
20.4200 4506.92
20.6800 4856.9
20.9400 4902.68
21.2000 4813.78
21.4600 4755.65
21.7200 4519.51
21.9800 4562.32
22.2400 4629.79
22.5000 4416.45
22.7600 4364.69
23.0200 4342.48
23.2800 4451.34
23.5400 4339.66
23.8000 4433.26
24.0600 4408.67
24.3200 4425
24.5800 4325.55
24.8400 4940.28
25.1000 4396.32
25.3600 4732.3
25.6200 4295.27
25.8800 4317.7
26.1400 4307.64
26.4000 4340.04
26.6600 4257.55
26.9200 4639.77
27.1800 5110.52
27.4400 7609.54
27.7000 5301.96
27.9600 4796.8
28.2200 4492.26
28.4800 4592.86
28.7400 4647.72
29.0000 4591.48
29.2600 4294.64
29.5200 4401.94
29.7800 4651.82
30.0400 4433.33
30.3000 4553.33
30.5600 4333.77
30.8200 4708.96
31.0800 4667.14
31.3400 4743.62
31.6000 4621.56
31.8600 4528.64
32.1200 4478.25
32.3800 4711.95
32.6400 4801.09
32.9000 4709.63
33.1600 5237.53
33.4200 5166.08
33.6800 5019.46
33.9400 5006.95
34.2000 5340.56
34.4600 5058.82
34.7200 5125.28
34.9800 5348.83
35.2400 5154.82
35.5000 6024.51
35.7600 6300.03
36.0200 7474.24
36.2800 6501.33
36.5400 5347.37
36.8000 5541.28
37.0600 5322.47
37.3200 5362.29
37.5800 5449.54
37.8400 5635.57
38.1000 5456.7
38.3600 5602.78
38.6200 5878.26
38.8800 5687.34
39.1400 5889.36
39.4000 5776.96
39.6600 5289.94
39.9200 5409.46
40.1800 5700.61
40.4400 5863.76
40.7000 5896.33
40.9600 5972.24
41.2200 6910.99
41.4800 7389.74
41.7400 7365.02
42.0000 6473.16
42.2600 6119.06
42.5200 5797.71
42.7800 5393.48
43.0400 5669.02
43.3000 5521.61
43.5600 6058.27
43.8200 6622.5
44.0800 6601.85
44.3400 10861.9
44.6000 16085.3
44.8600 5747.38
45.1200 5462.11
45.3800 5216.23
45.6400 5196.47
45.9000 5341.61
46.1600 5498.47
46.4200 5229
46.6800 5250.73
46.9400 4990.29
47.2000 5295.71
47.4600 5156.59
47.7200 5208.7
47.9800 5064.04
48.2400 5330.57
48.5000 5366.1
48.7600 5234.55
49.0200 5287.05
49.2800 5172.73
49.5400 5315.78
49.8000 5122.73
50.0600 5148.14
50.3200 4950.81
50.5800 5188.95
50.8400 5202.29
51.1000 5499.32
51.3600 5414.82
51.6200 6561.69
51.8800 13824
52.1400 5600.78
52.4000 5333.7
52.6600 5150.96
52.9200 5449.76
53.1800 5323.56
53.4400 5388.68
53.7000 5504.56
53.9600 5858.22
54.2200 6950.83
54.4800 7467.17
54.7400 5415.23
55.0000 5502.2
55.2600 5440.49
55.5200 5363.82
55.7800 5397.21
56.0400 5465.32
56.3000 5515.31
56.5600 6080.02
56.8200 6128.7
57.0800 5621.92
57.3400 5749.53
57.6000 5709.28
57.8600 6072.02
58.1200 5972.94
58.3800 6201.65
58.6400 6126.68
58.9000 5874.36
59.1600 5941.48
59.4200 5939.36
59.6800 5977.26
59.9400 6370.18
60.2000 6722.96
60.4600 7225.04
60.7200 6664.72
60.9800 6423.12
61.2400 5896.68
61.5000 5604.93
61.7600 5877.76
62.0200 5858.68
62.2800 5683.82
62.5400 5781.78
62.8000 6144.34
63.0600 5834.95
63.3200 5838.03
63.5800 5729.11
63.8400 5654.22
64.1000 6206.81
64.3600 5448.36
64.6200 5685.53
64.8800 5536.65
65.1400 5566.25
65.4000 5541.09
65.6600 5547.81
65.9200 5623.78
66.1800 5623.17
66.4400 5893.65
66.7000 5792.4
66.9600 5891.23
67.2200 5918.15
67.4800 5895.99
67.7400 5874.92
68.0000 5756.97
68.2600 5664.77
68.5200 5562.51
68.7800 6152.8
69.0400 6533.97
69.3000 6069.04
69.5600 5526.54
69.8200 6257.05
70.0800 5709.6
70.3400 5993.31
70.6000 5669.69
70.8600 5786.66
71.1200 5991.26
71.3800 5870.07
71.6400 5891.67
71.9000 5994.56
72.1600 6220.19
72.4200 6360.19
72.6800 6146.85
72.9400 5999.22
73.2000 5873.1
73.4600 5756.86
73.7200 5809.9
73.9800 5885.24
74.2400 5817.24
74.5000 5786.96
74.7600 5609.76
75.0200 5951.09
75.2800 5903.59
75.5400 5837.32
75.8000 5957.03
76.0600 6491.67
76.3200 9242.57
76.5800 7654.18
76.8400 6047.62
77.1000 5810.55
77.3600 5656.75
77.6200 5827.6
77.8800 5766.23
78.1400 5755.81
78.4000 5847.59
78.6600 5691.39
78.9200 5752.26
79.1800 5729.56
79.4400 5603.84
79.7000 5721.59
79.9600 5496.95
80.0000 5794.17