File: Courses/Advance project (MSE)/Mo2Ti2C3/XRD/data/Mo2Ti2C3-daya.dat
5	2450
5.29	2167.36
5.58	2510.54
5.87	2389.44
6.16	2255.415
6.45	2415.24
6.74	2527.1
7.03	2998.93
7.32	4851.42
7.61	70955.735
7.9	6314.58
8.19	3465.01
8.48	2796.79
8.77	2638.4
9.06	2633.475
9.35	2518.95
9.64	2564.52
9.93	2496.26
10.22	2508.36
10.51	2369.71
10.8	2506.47
11.09	2312.225
11.38	2495.41
11.67	2545.16
11.96	2229.97
12.25	2612.06
12.54	2591.75
12.83	2270.025
13.12	2385.31
13.41	2414.84
13.7	2444.92
13.99	2300
14.28	2560.03
14.57	2453.02
14.86	2914.79
15.15	5088.18
15.44	3132.96
15.73	2464.67
16.02	2219.54
16.31	2204.92
16.6	2415.6
16.89	2430.69
17.18	2318.24
17.47	2403.485
17.76	2602.09
18.05	2495.84
18.34	2297.38
18.63	2336.885
18.92	2091.06
19.21	2159.31
19.5	2361.09
19.79	1947.475
20.08	2153.1
20.37	2130.305
20.66	2100.95
20.95	2171.615
21.24	2047.71
21.53	2188.205
21.82	2159.4
22.11	2200.21
22.4	2236.38
22.69	2300
22.98	6247.51
23.27	2111.45
23.56	2031.265
23.85	2034.405
24.14	1808.44
24.43	1971.96
24.72	1920.48
25.01	2140.52
25.3	2838.35
25.59	2259.37
25.88	2325.16
26.17	4214.87
26.46	2495.025
26.75	2577.915
27.04	2685.59
27.33	3834.41
27.62	5959.005
27.91	2433.84
28.2	2197.795
28.49	2126.28
28.78	1876.75
29.07	1937.8
29.36	2017.6
29.65	1945.475
29.94	1893.925
30.23	1591.985
30.52	2085.01
30.81	2567.86
31.1	1490.39
31.39	2091.38
31.68	1719.345
31.97	2133.56
32.26	1685.05
32.55	1933.33
32.84	1714.25
33.13	1926.68
33.42	2107.35
33.71	1981.48
34	2267.75
34.29	2139.15
34.58	1930.16
34.87	2443.87
35.16	2663.28
35.45	1854.26
35.74	2464.58
36.03	4474.845
36.32	3899.25
36.61	2699.98
36.9	3296.91
37.19	4289.36
37.48	9177.97
37.77	4815.49
38.06	5259.66
38.35	8962.84
38.64	74477.135
38.93	6804.22
39.22	4130.27
39.51	3641.71
39.8	2315.43
40.09	2054.3
40.38	2032.865
40.67	2100.78
40.96	2561.69
41.25	5104.4
41.54	13654.425
41.83	3016.67
42.12	2146.5
42.41	2433.96
42.7	2063.63
42.99	2031.745
43.28	3434.93
43.57	2828.95
43.86	3502.36
44.15	2288.135
44.44	1950
44.73	1633.12
45.02	1929.52
45.31	1800
45.6	1822.71
45.89	2015.86
46.18	2279.14
46.47	2539.67
46.76	9615.755
47.05	2929.69
47.34	2023.75
47.63	1919.49
47.92	1757.39
48.21	1701.165
48.5	1814.46
48.79	1885.57
49.08	1636.03
49.37	1806.39
49.66	1836.88
49.95	1776.36
50.24	1486.765
50.53	1562.485
50.82	1738.135
51.11	1707.33
51.4	1672.86
51.69	1671.62
51.98	1814.43
52.27	1823.88
52.56	2099.24
52.85	1716.11
53.14	2008.7
53.43	2023.94
53.72	2269.485
54.01	2314.99
54.3	3507.04
54.59	2627.565
54.88	1781.17
55.17	2229.37
55.46	2018.02
55.75	1950.47
56.04	2032.935
56.33	1916.415
56.62	2348.04
56.91	1687.98
57.2	1930.685
57.49	1499.6
57.78	1615.64
58.07	1882.71
58.36	1736.815
58.65	1845.965
58.94	2465.715
59.23	3732.27
59.52	2030.145
59.81	1841.17
60.1	1687.475
60.39	1666.67
60.68	2150
60.97	3606.755
61.26	2591.06
61.55	1727.97
61.84	1575.42
62.13	1848.04
62.42	2155.88
62.71	2943.27
63	2512.79
63.29	1995.19
63.58	1671.215
63.87	1840.985
64.16	1997.38
64.45	1646.735
64.74	1786.07
65.03	1550.08
65.32	1636.17
65.61	1649.37
65.9	1674.57
66.19	2154.85
66.48	2245.81
66.77	1928.67
67.06	1924.29
67.35	1804.67
67.64	1504.57
67.93	1607.475
68.22	1489.34
68.51	1558.21
68.8	1639.25
69.09	2385.39
69.38	1807.42
69.67	1710.39
69.96	1886.02
70.25	2111.645
70.54	1940.46
70.83	1483.33
71.12	1685.83
71.41	1650
71.7	1633.6
71.99	1798.57
72.28	1615.27
72.57	1731.53
72.86	2596.44
73.15	3267.77
73.44	2125.85
73.73	2314.4
74.02	2579.205
74.31	4873.14
74.6	5127.97
74.89	2503.13
75.18	1840.94
75.47	1993.735
75.76	1726.65
76.05	1858.65
76.34	2334.215
76.63	1943.4
76.92	1789.14
77.21	1604.855
77.5	1518.235
77.79	1253.105
78.08	1602.24
78.37	1610.02
78.66	1813.21
78.95	1527.48
79.24	1659.415
79.53	1675.45
79.82	1712.21
80.11	1826.235
80.4	1514.4
80.69	1509.48
80.98	1709.22
81.27	1424.04
81.56	1625.19
81.85	1683.33
82.14	1958.605
82.43	2052.525
82.72	3483.97
83.01	2919.99
83.3	1821.38
83.59	1845.16
83.88	1535.16
84.17	1542.33
84.46	1838.13
84.75	1733.33
85.04	1683.09
85.33	1458.04
85.62	1592.48
85.91	1313.6
86.2	1417.67
86.49	1640.71
86.78	1594.22
87.07	1569.67
87.36	1638.34
87.65	1562.27
87.94	1592.18
88.23	1437.53
88.52	1527.19
88.81	1503.82
89.1	1570.16
89.39	1444.11
89.68	1662.99
89.97	1906.73
90	1978.82