File: Courses/Advance project (MSE)/Mo2Ti2C3/XRD/data/P10  0001.dat
4.37222  6.41541
4.46884  4.36939
4.56546  5.14566
4.66208  3.61325
4.7587  7.47652
4.85532  1.77909
4.95194  5.70587
5.04855  5.70974
5.14517  0.0928809
5.24179  5.84973
5.33841  -4.20684
5.43503  2.2474
5.53165  4.17761
5.62827  6.09605
5.72489  5.68357
5.8215  0.585939
5.91812  -0.629051
6.01474  1.44277
6.11136  0.0404122
6.20798  4.5404
6.3046  2.11412
6.40122  4.24243
6.49784  0.02341
6.59445  2.46795
6.69107  0.447455
6.78769  -0.420273
6.88431  1.93018
6.98093  1.86627
7.07755  1.53338
7.17417  4.21554
7.27079  2.24229
7.3674  2.12634
7.46402  1.67471
7.56064  -1.27751
7.65726  -1.04006
7.75388  -0.642251
7.8505  -0.12821
7.94712  3.2845
8.04374  4.03138
8.14035  12.0136
8.23697  16.9308
8.33359  20.1234
8.43021  33.7445
8.52683  34.7542
8.62345  23.6738
8.72007  12.345
8.81669  2.04789
8.91331  0.497895
9.00992  8.81096
9.10654  -0.7111
9.20316  12.5341
9.29978  5.77201
9.3964  2.38409
9.49302  -2.11159
9.58964  -4.83261
9.68626  2.75916
9.78287  18.9459
9.87949  61.2646
9.97611  110.153
10.0727  115.296
10.1693  74.9586
10.266  28.6249
10.3626  10.2758
10.4592  17.9342
10.5558  44.379
10.6524  68.9128
10.7491  90.8567
10.8457  113.173
10.9423  145.312
11.0389  155.292
11.1355  127.566
11.2322  78.481
11.3288  54.4658
11.4254  59.8624
11.522  104.81
11.6186  171.492
11.7152  173.94
11.8119  113.326
11.9085  43.0029
12.0051  18.9396
12.1017  9.03216
12.1983  11.068
12.295  10.6245
12.3916  3.72969
12.4882  -3.9873
12.5848  1.75492
12.6814  15.0029
12.7781  31.3105
12.8747  38.6298
12.9713  31.386
13.0679  24.5695
13.1645  32.2589
13.2611  53.3395
13.3578  88.0628
13.4544  149.786
13.551  201.334
13.6476  182.672
13.7442  125.004
13.8409  75.5207
13.9375  52.4996
14.0341  68.0059
14.1307  125.187
14.2273  322.026
14.324  499.256
14.4206  294.536
14.5172  734.621
14.6138  1045.99
14.7104  149.039
14.8071  35.6865
14.9037  6.68657
15.0003  10.9964
15.0969  6.95352
15.1935  -0.0885992
15.2901  -1.32907
15.3868  -1.99169
15.4834  -2.5053
15.58  1.4043
15.6766  6.32782
15.7732  4.37349
15.8699  2.96994
15.9665  -1.87154
16.0631  -1.45379
16.1597  4.49178
16.2563  18.6465
16.353  39.639
16.4496  75.2531
16.5462  90.6791
16.6428  131.896
16.7394  354.041
16.836  762.519
16.9327  541.849
17.0293  203.098
17.1259  91.8545
17.2225  48.0747
17.3191  45.4988
17.4158  26.9492
17.5124  20.5953
17.609  17.0242
17.7056  6.80047
17.8022  -1.99976
17.8989  -8.07515
17.9955  -0.0987316
18.0921  12.5723
18.1887  33.2874
18.2853  61.6174
18.3819  97.7242
18.4786  127.927
18.5752  164.144
18.6718  189.222
18.7684  207.188
18.865  205.31
18.9617  202.092
19.0583  195.481
19.1549  178.025
19.2515  143.183
19.3481  107.131
19.4448  72.1542
19.5414  47.3234
19.638  28.5818
19.7346  16.7167
19.8312  13.6093
19.9278  7.67957
20.0245  5.30913
20.1211  0.314602
20.2177  -0.861
20.3143  -3.16215
20.4109  -3.6501
20.5076  -4.56167
20.6042  1.78494
20.7008  5.601
20.7974  12.4222
20.894  16.8306
20.9907  21.5978
21.0873  26.0784
21.1839  25.7989
21.2805  18.9315
21.3771  13.0045
21.4737  3.66269
21.5704  3.99607
21.667  0.758691
21.7636  4.87189
21.8602  9.38776
21.9568  10.4622
22.0535  12.4111
22.1501  19.6963
22.2467  24.1311
22.3433  32.8722
22.4399  41.3719
22.5366  40.3818
22.6332  40.1636
22.7298  32.747
22.8264  22.9598
22.923  17.3776
23.0196  11.992
23.1163  18.4101
23.2129  24.8673
23.3095  34.2335
23.4061  53.9608
23.5027  61.9983
23.5994  103.654
23.696  123.812
23.7926  207.962
23.8892  652.358
23.9858  727.896
24.0825  193.108
24.1791  44.769
24.2757  20.3948
24.3723  7.64148
24.4689  3.66454
24.5655  0.273111
24.6622  1.43386
24.7588  4.50338
24.8554  4.2341
24.952  2.58648
25.0486  1.85588
25.1453  2.61444
25.2419  -0.74144
25.3385  -0.978907
25.4351  2.32708
25.5317  1.61847
25.6284  1.45601
25.725  3.35202
25.8216  12.9168
25.9182  15.5629
26.0148  35.1665
26.1114  46.6008
26.2081  67.0591
26.3047  64.3548
26.4013  45.9324
26.4979  41.7843
26.5945  46.1506
26.6912  49.3163
26.7878  56.0295
26.8844  63.8936
26.981  73.1946
27.0776  83.4461
27.1743  92.1359
27.2709  102.742
27.3675  110.525
27.4641  113.829
27.5607  82.8806
27.6573  42.1903
27.754  10.605
27.8506  30.9856
27.9472  211.195
28.0438  518.864
28.1404  611.555
28.2371  523.446
28.3337  253.368
28.4303  95.2809
28.5269  58.9936
28.6235  42.2177
28.7202  35.0654
28.8168  27.9982
28.9134  14.7571
29.01  2.43001
29.1066  0.00155041
29.2032  2.78068
29.2999  -2.90931
29.3965  -2.40113
29.4931  -2.28805
29.5897  9.80603
29.609  -5.84666