File: Courses/Advance project (MSE)/Mo2Ti2C3/XRD/data/P4  0001.dat
4.18115  5.85954
4.27762  3.196
4.37408  3.09574
4.47055  -0.836057
4.56702  10.7523
4.66349  70.293
4.75995  12.2114
4.85642  7.13089
4.95289  52.6613
5.04935  12.2263
5.14582  -2.13971
5.24229  -0.66633
5.33875  1.29515
5.43522  19.808
5.53169  34.8377
5.62816  49.5012
5.72462  40.33
5.82109  25.3476
5.91756  14.9541
6.01402  11.3812
6.11049  8.49994
6.20696  26.3347
6.30342  23.8488
6.39989  21.5097
6.49636  17.5575
6.59283  6.85181
6.68929  -2.22616
6.78576  -1.03003
6.88223  0.897534
6.97869  -0.354796
7.07516  0.556918
7.17163  5.41654
7.26809  3.60501
7.36456  1.09968
7.46103  -0.685658
7.5575  -2.65809
7.65396  6.95144
7.75043  14.8891
7.8469  14.5428
7.94336  82.4718
8.03983  177.19
8.1363  93.9433
8.23276  52.2982
8.32923  31.0815
8.4257  6.06845
8.52217  0.0299574
8.61863  4.67631
8.7151  36.3304
8.81157  243.243
8.90803  919.264
9.0045  307.087
9.10097  35.8333
9.19743  25.919
9.2939  71.9073
9.39037  51.1605
9.48684  17.931
9.5833  49.4265
9.67977  54.2237
9.77624  24.0755
9.8727  22.8344
9.96917  23.664
10.0656  1.93449
10.1621  -5.50597
10.2586  -10.3266
10.355  0.243242
10.4515  42.8963
10.548  116.339
10.6444  169.736
10.7409  205.327
10.8374  246.774
10.9338  243.45
11.0303  155.599
11.1268  77.4565
11.2232  82.1856
11.3197  164.645
11.4162  367.362
11.5126  659.103
11.6091  601.23
11.7056  307.413
11.802  114.012
11.8985  33.7554
11.995  16.583
12.0914  13.6716
12.1879  20.89
12.2844  52.5371
12.3808  104.844
12.4773  163.063
12.5738  152.279
12.6702  95.4546
12.7667  45.9154
12.8632  27.4062
12.9596  39.5753
13.0561  136.631
13.1526  372.359
13.249  473.009
13.3455  430.343
13.442  307.096
13.5384  169.954
13.6349  85.4384
13.7314  51.8685
13.8279  78.2244
13.9243  179.969
14.0208  71.1853
14.1173  171.082
14.2137  419.933
14.3102  241.426
14.4067  55.8256
14.5031  28.1335
14.5996  0.262023
14.6961  -0.570765
14.7925  8.76509
14.889  -3.28935
14.9855  13.7766
15.0819  17.2517
15.1784  31.1524
15.2749  55.0976
15.3713  52.9639
15.4678  24.6123
15.5643  5.87044
15.6607  -5.1166
15.7572  -6.29029
15.8537  -5.67953
15.9501  6.71303
16.0466  19.3846
16.1431  49.1773
16.2395  63.5846
16.336  174.171
16.4325  571.861
16.5289  287.911
16.6254  100.043
16.7219  71.8905
16.8183  40.646
16.9148  125.459
17.0113  268.603
17.1077  331.738
17.2042  268.6
17.3007  167.023
17.3971  72.4659
17.4936  6.26908
17.5901  -6.29472
17.6865  0.0466857
17.783  64.5615
17.8795  123.22
17.9759  105.554
18.0724  106.472
18.1689  175.257
18.2653  241.901
18.3618  236.514
18.4583  181.549
18.5547  165.054
18.6512  200.876
18.7477  263.716
18.8441  294.506
18.9406  246.888
19.0371  160
19.1335  87.3144
19.23  46.8288
19.3265  47.9368
19.4229  63.91
19.5194  61.6363
19.6159  36.0789
19.7123  21.0397
19.8088  14.8992
19.9053  3.37113
20.0017  -2.07783
20.0982  -3.55558
20.1947  -5.27238
20.2911  -6.74412
20.3876  -1.01218
20.4841  7.95915
20.5805  21.9954
20.677  39.0962
20.7735  53.8462
20.8699  62.9368
20.9664  73.9839
21.0629  76.8245
21.1593  68.2612
21.2558  60.3517
21.3523  69.2197
21.4487  62.5972
21.5452  33.5467
21.6417  2.59531
21.7381  -1.17352
21.8346  5.10279
21.9311  27.819
22.0275  55.9302
22.124  85.0027
22.2205  98.4719
22.3169  82.5063
22.4134  62.3391
22.5099  45.7409
22.6063  40.8508
22.7028  47.6664
22.7993  68.9973
22.8957  94.0395
22.9922  108.993
23.0887  92.3108
23.1851  193.809
23.2816  519.538
23.3781  470.168
23.4745  131.154
23.571  34.2731
23.6675  9.78451
23.764  2.21444
23.8604  -1.96709
23.9569  5.14671
24.0534  3.44966
24.1498  3.65868
24.2463  3.4638
24.3428  2.36872
24.4392  -4.49676
24.5357  1.69587
24.6322  6.83449
24.7286  14.4245
24.8251  22.6512
24.9216  18.6851
25.018  18.5854
25.1145  10.9881
25.211  8.41972
25.3074  3.59771
25.4039  3.40305
25.5004  4.65075
25.5968  0.363489
25.6933  -1.33088
25.7898  5.87899
25.8862  13.8679
25.9827  20.8716
26.0792  31.1653
26.1756  57.239
26.2721  67.3419
26.3686  61.9813
26.465  76.1193
26.5615  84.9608
26.658  86.8012
26.7544  87.4881
26.8509  90.8037
26.9474  96.683
27.0438  110.89
27.1403  138.959
27.2368  21.0933
27.3332  145.074
27.4297  225.723
27.5262  314.35
27.6226  122.548
27.7191  67.6058
27.8156  57.7762
27.912  56.4621
28.0085  56.7093
28.105  46.9203
28.2014  49.3732
28.2979  41.6069
28.3944  37.8422
28.4908  39.6161
28.5873  78.1588
28.6838  128.344
28.7802  133.89
28.8767  71.5836
28.9732  57.3731
29.0696  47.7601
29.1661  32.4292
29.2626  38.6408
29.359  22.5202
29.4555  22.3699
29.552  2.07406
29.6484  -6.24159
29.7449  4.33712
29.8028  2.08715