File: Courses/Advance project (MSE)/Mo2Ti2C3/XRD/data/P5  0001.dat
4.1913  6.37465
4.28809  5.24824
4.38488  1.54125
4.48166  1.78907
4.57845  7.91143
4.67524  49.0326
4.77203  12.9289
4.86882  4.70686
4.96561  40.8887
5.0624  9.8087
5.15919  0.591706
5.25598  -1.21447
5.35277  4.45176
5.44956  11.9325
5.54635  19.3165
5.64313  20.0915
5.73992  24.9486
5.83671  19.2156
5.9335  13.2273
6.03029  13.8606
6.12708  12.9949
6.22387  14.6441
6.32066  9.29438
6.41745  4.62784
6.51424  1.06205
6.61103  1.45639
6.70782  -0.380916
6.80461  -2.48598
6.90139  -0.653965
6.99818  0.969781
7.09497  1.52166
7.19176  1.8092
7.28855  1.86926
7.38534  4.29748
7.48213  -1.48419
7.57892  -1.79616
7.67571  2.30102
7.7725  11.684
7.86929  16.0202
7.96608  79.4405
8.06287  130.301
8.15965  68.049
8.25644  42.6803
8.35323  40.7963
8.45002  18.8946
8.54681  7.34134
8.6436  -1.51258
8.74039  17.4105
8.83718  156.998
8.93397  607.835
9.03076  272.702
9.12755  38.5925
9.22434  18.0336
9.32112  42.6467
9.41791  33.5018
9.5147  14.6917
9.61149  33.2367
9.70828  52.869
9.80507  48.675
9.90186  28.5114
9.99865  16.2606
10.0954  -0.559763
10.1922  -7.34119
10.289  -7.68032
10.3858  3.976
10.4826  41.0916
10.5794  105.085
10.6762  146.815
10.773  196.555
10.8698  264.039
10.9665  270.474
11.0633  159.135
11.1601  72.1274
11.2569  81.134
11.3537  161.978
11.4505  329.446
11.5473  477.934
11.6441  414.777
11.7409  242.762
11.8376  106.056
11.9344  44.9631
12.0312  27.03
12.128  16.4029
12.2248  19.0755
12.3216  40.6382
12.4184  75.2317
12.5152  119.649
12.612  127.925
12.7087  84.4773
12.8055  35.8195
12.9023  18.5979
12.9991  32.7223
13.0959  121.739
13.1927  297.13
13.2895  409.469
13.3863  400.099
13.4831  298.637
13.5798  181.076
13.6766  96.8429
13.7734  67.3482
13.8702  90.3166
13.967  202.103
14.0638  331.447
14.1606  318.2
14.2574  1183.37
14.3542  449.641
14.451  78.7904
14.5477  22.286
14.6445  -4.52416
14.7413  -2.35371
14.8381  6.27223
14.9349  8.66023
15.0317  10.0691
15.1285  16.9723
15.2253  25.3617
15.3221  43.1198
15.4188  42.3809
15.5156  22.1114
15.6124  1.63539
15.7092  -3.95532
15.806  -9.83117
15.9028  -6.36024
15.9996  0.75021
16.0964  20.602
16.1932  47.0877
16.2899  76.3804
16.3867  205.675
16.4835  503.943
16.5803  283.065
16.6771  57.7458
16.7739  40.1979
16.8707  53.2627
16.9675  109.535
17.0643  183.395
17.1611  196.836
17.2578  163.16
17.3546  119.495
17.4514  52.8376
17.5482  19.3568
17.645  -4.22567
17.7418  -3.51652
17.8386  40.3132
17.9354  98.4174
18.0322  112.499
18.1289  118.438
18.2257  154.325
18.3225  188.607
18.4193  190.247
18.5161  188.214
18.6129  208.215
18.7097  248.944
18.8065  293.325
18.9033  284.484
19  220.15
19.0968  140.797
19.1936  78.4953
19.2904  45.1673
19.3872  33.0042
19.484  37.6113
19.5808  29.6777
19.6776  18.5579
19.7744  12.9033
19.8711  8.99199
19.9679  0.708041
20.0647  -6.1658
20.1615  -8.75976
20.2583  -7.5983
20.3551  0.533166
20.4519  11.5345
20.5487  23.4356
20.6455  35.2223
20.7423  44.7393
20.839  57.9971
20.9358  60.7435
21.0326  59.2763
21.1294  48.2911
21.2262  32.23
21.323  21.5342
21.4198  19.4465
21.5166  14.7466
21.6134  5.4812
21.7101  4.58409
21.8069  4.7102
21.9037  17.268
22.0005  33.203
22.0973  56.2185
22.1941  76.3847
22.2909  76.9468
22.3877  63.4273
22.4845  48.6031
22.5812  39.8578
22.678  36.0064
22.7748  47.8479
22.8716  66.7233
22.9684  86.8256
23.0652  104.029
23.162  112.977
23.2588  141.136
23.3556  191.747
23.4523  232.06
23.5491  106.965
23.6459  47.3048
23.7427  15.3545
23.8395  4.14441
23.9363  2.57219
24.0331  1.82751
24.1299  4.39031
24.2267  4.21776
24.3235  3.09804
24.4202  -1.96441
24.517  -3.74365
24.6138  -0.795301
24.7106  0.0788138
24.8074  7.56102
24.9042  5.51853
25.001  6.38929
25.0978  8.25406
25.1946  6.23212
25.2913  4.85405
25.3881  2.62683
25.4849  1.33328
25.5817  -3.11037
25.6785  0.615201
25.7753  3.33577
25.8721  8.25578
25.9689  13.7961
26.0657  22.3095
26.1624  38.3079
26.2592  48.5246
26.356  36.6764
26.4528  31.4898
26.5496  49.3766
26.6464  65.5892
26.7432  70.4482
26.84  79.2555
26.9368  97.2486
27.0335  99.6906
27.1303  86.8849
27.2271  81.3142
27.3239  97.2075
27.4207  199.422
27.5175  232.391
27.6143  233.347
27.7111  120.751
27.8079  72.7557
27.9047  40.5299
28.0014  26.1295
28.0982  24.4861
28.195  29.7886
28.2918  35.3466
28.3886  27.0048
28.4854  23.1617
28.5822  27.9269
28.679  56.3122
28.7758  133.192
28.8725  116.572
28.9693  49.3749
29.0661  29.3727
29.1629  23.7554
29.2597  9.13479
29.3565  5.40827
29.4533  10.3481
29.5501  18.5724
29.6469  -1.07952
29.7436  0.89858
29.7824  -1.62372