File: Courses/Advance project (MSE)/Mo2Ti2C3/XRD/data/P7  0001.dat
4.24937  7.78799
4.34616  5.66875
4.44295  3.46235
4.53974  2.31579
4.63653  -0.458977
4.73332  6.53356
4.83011  3.17327
4.92689  8.48886
5.02368  2.66612
5.12047  -0.13029
5.21726  6.33662
5.31405  -3.08771
5.41084  1.36367
5.50763  2.87437
5.60442  5.66058
5.70121  0.132304
5.798  1.27206
5.89479  3.07956
5.99158  1.65389
6.08837  2.02609
6.18515  6.34375
6.28194  4.90829
6.37873  8.09295
6.47552  1.08615
6.57231  0.622525
6.6691  1.38818
6.76589  -2.0536
6.86268  -0.00357936
6.95947  1.43171
7.05626  0.452504
7.15305  1.80358
7.24984  1.32613
7.34663  0.493026
7.44341  1.68004
7.5402  0.570133
7.63699  -1.601
7.73378  -0.618999
7.83057  0.124438
7.92736  2.48507
8.02415  6.70903
8.12094  19.1134
8.21773  18.9893
8.31452  34.8101
8.41131  49.5247
8.5081  40.6024
8.60488  21.2709
8.70167  6.06976
8.79846  0.186943
8.89525  12.8892
8.99204  72.0284
9.08883  36.7354
9.18562  10.4282
9.28241  1.55606
9.3792  -2.01559
9.47599  -3.33225
9.57278  -0.894441
9.66957  11.1804
9.76636  48.5827
9.86314  100.27
9.95993  119.635
10.0567  74.2282
10.1535  26.5914
10.2503  1.20653
10.3471  -2.66828
10.4439  16.2365
10.5407  40.908
10.6375  76.1493
10.7342  112.219
10.831  165.795
10.9278  226.724
11.0246  221.869
11.1214  134.443
11.2182  65.6119
11.315  65.7368
11.4118  106.666
11.5086  180.131
11.6054  245.563
11.7021  210.612
11.7989  120.145
11.8957  52.4115
11.9925  28.561
12.0893  20.9649
12.1861  15.1555
12.2829  6.71889
12.3797  -1.40084
12.4765  10.1257
12.5732  25.7778
12.67  42.6843
12.7668  47.6677
12.8636  42.8329
12.9604  31.322
13.0572  32.6591
13.154  70.3779
13.2508  133
13.3476  235.408
13.4443  327.585
13.5411  314.351
13.6379  220.806
13.7347  125.299
13.8315  75.6225
13.9283  79.3466
14.0251  139.324
14.1219  260.029
14.2187  287.886
14.3154  238.985
14.4122  734.995
14.509  566.947
14.6058  62.685
14.7026  18.1651
14.7994  20.8337
14.8962  -5.37944
14.993  9.56853
15.0898  10.322
15.1866  -2.08404
15.2833  -1.53669
15.3801  3.18857
15.4769  10.0084
15.5737  11.3752
15.6705  12.8064
15.7673  3.84956
15.8641  -1.98478
15.9609  -4.66586
16.0577  1.42969
16.1544  16.5138
16.2512  35.8566
16.348  55.7007
16.4448  94.3236
16.5416  171.95
16.6384  440.665
16.7352  578.629
16.832  419.257
16.9288  126.332
17.0255  79.1975
17.1223  64.5959
17.2191  54.3983
17.3159  38.905
17.4127  23.4651
17.5095  12.5477
17.6063  8.31638
17.7031  -4.95982
17.7999  -6.68097
17.8966  -6.04501
17.9934  18.3432
18.0902  49.6984
18.187  86.3255
18.2838  120.655
18.3806  157.631
18.4774  183.396
18.5742  210.373
18.671  232.641
18.7678  257.057
18.8645  273.446
18.9613  277.561
19.0581  247.157
19.1549  195.066
19.2517  136.502
19.3485  85.3879
19.4453  47.5114
19.5421  22.9747
19.6389  10.0277
19.7356  7.92129
19.8324  8.85376
19.9292  9.15949
20.026  5.19731
20.1228  -0.991064
20.2196  -6.58705
20.3164  -5.68877
20.4132  -1.13408
20.51  2.52582
20.6067  12.2083
20.7035  26.723
20.8003  32.8481
20.8971  39.9748
20.9939  43.6272
21.0907  38.6196
21.1875  33.7667
21.2843  23.1829
21.3811  10.5657
21.4778  1.50774
21.5746  -0.459644
21.6714  -0.737106
21.7682  7.85881
21.865  12.4352
21.9618  17.9204
22.0586  28.7998
22.1554  44.9316
22.2522  59.5605
22.349  68.8344
22.4457  71.0514
22.5425  62.2778
22.6393  48.1437
22.7361  37.6713
22.8329  33.0799
22.9297  34.1669
23.0265  37.1915
23.1233  54.127
23.2201  67.9835
23.3168  75.2635
23.4136  80.9835
23.5104  122.228
23.6072  213.706
23.704  287.728
23.8008  138.247
23.8976  52.6198
23.9944  9.78134
24.0912  4.60234
24.1879  2.68564
24.2847  3.21807
24.3815  3.0764
24.4783  1.43714
24.5751  -0.23985
24.6719  1.71907
24.7687  1.76797
24.8655  1.67739
24.9623  0.813049
25.059  4.36753
25.1558  -0.643077
25.2526  2.56333
25.3494  3.62021
25.4462  6.073
25.543  9.38743
25.6398  -1.89457
25.7366  3.90546
25.8334  13.4626
25.9302  16.3538
26.0269  27.7017
26.1237  41.9215
26.2205  61.1333
26.3173  55.9571
26.4141  33.1763
26.5109  30.5384
26.6077  36.2456
26.7045  48.616
26.8013  55.6863
26.898  74.0938
26.9948  85.0257
27.0916  103.995
27.1884  109.005
27.2852  108.271
27.382  105.751
27.4788  103.242
27.5756  147.331
27.6724  99.6474
27.7691  205.336
27.8659  299.598
27.9627  145.774
28.0595  25.3406
28.1563  70.538
28.2531  57.2567
28.3499  46.9965
28.4467  34.4919
28.5435  40.3408
28.6403  43.1647
28.737  45.597
28.8338  45.5685
28.9306  56.4249
29.0274  88.0751
29.1242  192.32
29.221  148.684
29.3178  59.8134
29.4146  17.9017
29.5114  -1.83707
29.6081  2.31899
29.7049  3.71719
29.7243  -1.43264