File: Courses/Advance project (MSE)/Mo2Ti2C3/XRD/data/P9  0001.dat
4.33375  6.02929
4.43073  4.4776
4.52771  4.1959
4.62469  0.907152
4.72168  2.47191
4.81866  -0.94305
4.91564  -0.0017909
5.01262  4.44522
5.1096  3.70186
5.20658  2.02664
5.30356  -3.26944
5.40055  3.98347
5.49753  1.28829
5.59451  8.01698
5.69149  0.151409
5.78847  -0.295419
5.88545  3.25761
5.98243  1.30921
6.07942  1.80571
6.1764  5.70911
6.27338  3.34777
6.37036  2.62814
6.46734  2.14586
6.56432  0.408033
6.66131  -0.837259
6.75829  1.12645
6.85527  1.16469
6.95225  0.0720596
7.04923  1.33642
7.14621  0.511226
7.24319  1.86678
7.34018  4.19535
7.43716  1.29869
7.53414  0.503246
7.63112  -1.3426
7.7281  -0.61533
7.82508  -1.12639
7.92206  1.38945
8.01905  8.85723
8.11603  12.9607
8.21301  15.7476
8.30999  22.9744
8.40697  37.1063
8.50395  40.5722
8.60093  26.2122
8.69792  12.0331
8.7949  0.616221
8.89188  3.44418
8.98886  20.0712
9.08584  17.1457
9.18282  13.1772
9.27981  8.77547
9.37679  3.44263
9.47377  -4.0017
9.57075  -2.08781
9.66773  2.92394
9.76471  21.9721
9.86169  70.0598
9.95868  114.54
10.0557  104.447
10.1526  55.9608
10.2496  16.0321
10.3466  4.58306
10.4436  17.324
10.5406  38.0307
10.6375  71.0869
10.7345  93.6031
10.8315  124.111
10.9285  163.992
11.0255  175.657
11.1225  128.931
11.2194  69.9916
11.3164  51.5698
11.4134  68.2661
11.5104  112.35
11.6074  174.367
11.7043  170.942
11.8013  103.725
11.8983  41.0845
11.9953  19.1883
12.0923  12.8357
12.1892  14.8094
12.2862  10.4496
12.3832  -2.1831
12.4802  0.904958
12.5772  6.96566
12.6742  22.1378
12.7711  36.3433
12.8681  36.872
12.9651  29.2088
13.0621  24.1956
13.1591  38.8431
13.256  64.8333
13.353  117.612
13.45  186.167
13.547  220.903
13.644  183.635
13.741  114.795
13.8379  66.0792
13.9349  58.5368
14.0319  89.8044
14.1289  196.839
14.2259  327.328
14.3228  335.68
14.4198  398.594
14.5168  859.339
14.6138  290.356
14.7108  83.7425
14.8077  34.7643
14.9047  0.27254
15.0017  6.29246
15.0987  6.44949
15.1957  -0.0413271
15.2927  -1.74292
15.3896  -3.92183
15.4866  0.856249
15.5836  2.39622
15.6806  7.24637
15.7776  3.22642
15.8745  -0.682712
15.9715  -3.75169
16.0685  -0.531567
16.1655  12.3241
16.2625  33.7304
16.3595  49.8059
16.4564  66.8783
16.5534  121.938
16.6504  227.074
16.7474  532.414
16.8444  593.806
16.9413  300.381
17.0383  101.114
17.1353  58.7764
17.2323  49.6897
17.3293  32.8319
17.4262  18.2755
17.5232  17.701
17.6202  11.7155
17.7172  -0.849363
17.8142  -5.15296
17.9112  -5.44269
18.0081  9.99861
18.1051  34.868
18.2021  60.8721
18.2991  97.8046
18.3961  134.351
18.493  164.544
18.59  193.658
18.687  209.599
18.784  214.161
18.881  215.7
18.978  210.89
19.0749  194.966
19.1719  163.209
19.2689  122.885
19.3659  84.0889
19.4629  54.0451
19.5598  30.5439
19.6568  14.6895
19.7538  9.06156
19.8508  9.12303
19.9478  8.57132
20.0447  3.54004
20.1417  -2.01525
20.2387  -4.33075
20.3357  -4.91317
20.4327  -2.03638
20.5297  0.384902
20.6266  6.27913
20.7236  11.3679
20.8206  20.1167
20.9176  25.3224
21.0146  27.9608
21.1115  26.4593
21.2085  24.7871
21.3055  20.0738
21.4025  9.76448
21.4995  2.31054
21.5965  -0.546912
21.6934  3.49315
21.7904  5.78422
21.8874  8.88601
21.9844  10.6482
22.0814  13.8239
22.1783  24.506
22.2753  32.6739
22.3723  43.2556
22.4693  46.2161
22.5663  45.9387
22.6632  36.0814
22.7602  31.0193
22.8572  22.9976
22.9542  21.4287
23.0512  20.644
23.1482  34.1784
23.2451  45.9299
23.3421  51.5717
23.4391  57.1163
23.5361  71.1447
23.6331  101.134
23.73  255.345
23.827  509.99
23.924  409.04
24.021  156.373
24.118  28.6307
24.215  8.11133
24.3119  3.36558
24.4089  1.38332
24.5059  3.01776
24.6029  1.31714
24.6999  -0.705486
24.7968  4.24751
24.8938  1.98876
24.9908  0.68824
25.0878  1.71749
25.1848  -0.0416691
25.2817  -1.70949
25.3787  -1.43444
25.4757  1.49513
25.5727  1.93702
25.6697  0.740245
25.7667  3.34168
25.8636  13.0232
25.9606  20.0979
26.0576  26.9645
26.1546  43.7388
26.2516  52.9969
26.3485  33.3777
26.4455  23.3561
26.5425  25.8917
26.6395  26.8178
26.7365  32.2353
26.8335  33.6613
26.9304  44.3498
27.0274  52.7867
27.1244  59.7961
27.2214  62.9916
27.3184  67.5627
27.4153  68.7758
27.5123  67.7714
27.6093  54.1423
27.7063  64.4431
27.8033  97.5787
27.9002  272.506
27.9972  620.006
28.0942  466.422
28.1912  379.87
28.2882  87.1078
28.3852  29.2881
28.4821  8.41762
28.5791  13.7102
28.6761  14.2202
28.7731  14.2149
28.8701  7.59437
28.967  1.67794
29.064  -0.534526
29.161  12.9597
29.258  71.6641
29.355  114.991
29.452  25.1723
29.5489  -6.90449
29.6459  -6.27844